File: files/ZnO_Eu.csv
Sample 24,
Wavelength (nm),Intensity (a.u.)
500,0.341401
502.05,0.333109
503.97,0.446875
506.02,0.636613
507.94,0.369551
510,0.162374
511.94,0.475834
514.02,0.372536
515.97,0.850919
518.05,0.495836
520,0.607487
522.05,0.307143
523.97,0.196165
526.02,0.508382
527.94,0.708291
530,0.326332
532.05,0.890646
533.97,0.57079
536.02,1.00402
537.94,0.968572
540,0.701066
542.05,0.790599
543.97,0.71383
546.02,0.580475
547.94,0.181905
550,0.175421
552.05,0.346686
553.97,0.680546
556.02,0.843031
557.94,0.570275
560,0.963998
562.05,0.817283
563.97,1.58046
566.02,1.71782
567.94,2.10616
570,5.94074
572.02,11.3464
574.05,29.8177
575.94,57.3359
577.97,70.1413
580,57.7865
582.02,49.4823
584.05,64.369
585.94,79.6423
587.97,93.5762
590,103.314
592.05,103.434
593.97,94.5519
596.02,87.54
597.94,81.0906
600,66.4898
602,57.1997
604,66.0974
606,118.165
608,237.12
610,380.54
612.02,504.06
614.05,536.619
615.94,512.113
617.97,466.592
620,399.478
622.02,340.098
624.05,280.369
625.94,219.55
627.97,156.919
630,97.6999
632,57.7751
634,31.2988
636,21.3375
638,16.2787
640,14.2051
642,13.0433
644,14.3353
646,16.7379
648,20.568
650,23.8539
652,28.9141
654,26.6579
656,26.0946
658,20.4465
660,13.9442
662,8.90058
664,6.10661
666,4.23779
668,4.15321
670,3.57322
671.97,4.18176
673.94,4.2043
676.05,3.90677
678.02,5.01236
680,6.86875
681.97,9.10746
683.94,12.7557
686.05,16.1476
688.02,18.7498
690,23.7691
691.97,27.071
693.94,31.8228
696.05,35.5338
698.02,41.4832
700,52.3942
701.97,62.4158
703.94,66.8438
706.05,60.5327
708.02,41.8291
710,22.0671
711.94,10.0691
714.02,5.15783
715.97,2.69124
718.05,2.31565
720,1.69202
721.97,1.12998
723.94,1.18853
726.05,0.829665
728.02,0.743532
730,0.4776
732.05,0.737408
733.97,0.737896
736.02,0.879291
737.94,1.05901
740,1.21418
741.94,0.933942
744.02,1.41702
745.97,1.78224
748.05,1.86575
750,1.39297
751.94,1.53641
754.02,1.55209
755.97,0.496543
758.05,0.922422
760,0.771552
762.05,0.847473
763.97,0.763719
766.02,0.887083
767.94,0.239064
770,0.438209
772.05,0.614312
773.97,0.225629
776.02,0.230822
777.94,0.864533
780,0.0936961
782.02,0
784.05,0.724368
785.94,0.300807
787.97,0.213365
790,0.295638
792.02,0.392197
794.05,1.09723
795.94,0.5476
797.97,0.727711
800,0.926507
802.02,1.29745
804.05,1.32739
805.94,1.50039
807.97,1.21798
810,1.20197
812.02,1.45513
814.05,0.79017
815.94,0.594824
817.97,1.23673
820,0.887977
822,0.895706
824,0.910798
826,0.819171
828,0.455615
830,0.515795
832,0.280713
834,0.428611
836,0
838,0
840,0.224749
842,0.3349
844,0.69484
846,0.262467
848,0
850,0
851.97,0.376974
853.94,0.294118
856.05,0.0944002
858.02,0.306003
860,0
861.97,0.419957
863.94,0.138083
866.05,0.105714
868.02,0.209513
870,0.131794
871.94,0.199019
874.02,0.156947
875.97,0
878.05,0.0997923
880,0.213936
881.94,0.144294
884.02,0
885.97,0
888.05,0
890,0
891.94,0
894.02,0
895.97,0.165573
898.05,0
900,0.0822504